#Wavelength [nm]	White Std.	Dark spec	0[s]	20.578[s]	40.667[s]	60.747[s]	80.814[s]	100.892[s]	120.956[s]	141.017[s]	161.122[s]	181.21[s]	201.3[s]	221.359[s]	241.466[s]	261.615[s]	281.707[s]	301.819[s]	301.831[s]
420.156	2097.42	1031.26	145.927	158.66	127.46	170.86	184.06	156.86	142.46	149.26	105.66	157.46	160.06	162.46	148.46	116.46	139.26	151.46	151.46
420.431	2166.58	1035.82	176.353	145.62	157.02	178.82	170.02	159.02	155.02	163.22	157.82	152.82	153.62	177.42	147.62	193.22	151.02	157.22	157.22
420.706	2268.67	1032.7	156.28	144.88	155.08	154.88	152.08	168.08	133.28	145.28	162.68	167.28	160.28	166.28	174.28	160.88	160.08	164.28	164.28
420.981	2380.65	1035.14	175.02	141.42	142.72	151.42	176.62	176.82	168.22	183.42	176.42	181.02	126.62	149.82	170.82	154.82	151.22	156.02	156.02
421.256	2499.86	1037.35	161.453	184.92	158.12	196.32	153.52	170.92	212.72	162.72	188.32	169.92	161.52	197.72	187.72	164.52	145.92	168.92	168.92
421.531	2620.01	1033.08	192.787	200.32	211.32	199.92	194.32	174.72	168.72	179.72	175.92	174.32	172.52	173.92	218.32	183.72	196.42	195.32	195.32
421.805	2755.52	1029.52	207.993	205.66	184.26	204.46	221.86	169.66	220.46	204.26	195.86	185.86	183.66	216.46	184.86	198.26	215.06	199.46	199.46
422.08	2816.77	1032.84	201.853	184.52	208.32	170.52	160.32	192.72	222.32	204.12	192.12	192.92	202.52	202.72	197.32	177.12	189.92	197.32	197.32
422.355	3038.76	1034.96	220.667	233.8	222.8	214.8	199.2	222.6	215.2	197.6	226	170.2	206	217.4	168.4	183.8	208.6	197.8	197.8
422.63	3131.63	1037.82	207.333	213.4	195.8	209.2	196.4	198.6	205.8	217	190.2	209.4	163.6	205.4	202.6	199	191	212.2	212.2
422.904	3226.56	1038.72	226.46	227.06	228.86	238.86	231.26	225.66	220.86	224.66	217.46	207.56	211.66	207.86	205.46	242.46	222.86	223.46	223.46
423.179	3334.87	1030.58	248.82	223.22	236.42	234.42	260.42	234.42	230.02	226.82	225.42	238.42	206.22	231.62	250.42	208.22	208.22	218.62	218.62
423.453	3481.44	1034.74	229.74	239.14	218.14	247.14	217.94	240.34	244.34	239.54	234.74	240.74	221.54	243.94	234.54	246.34	216.14	268.14	268.14
423.728	3684.03	1033.62	257.033	250.1	260.9	265.5	249.5	263.9	259.9	242.9	248.5	252.5	252.1	263.9	282.1	256.9	240.3	234.3	234.3
424.002	3801.02	1046.92	267.087	258.82	262.42	272.82	252.22	257.02	258.02	249.82	237.42	215.82	213.62	226.62	264.82	260.22	244.82	248.22	248.22
424.276	3962.07	1037.34	265.387	284.92	253.12	287.32	271.72	269.72	257.12	279.72	248.52	285.32	260.72	253.52	263.12	281.92	266.52	266.52	266.52
424.551	4161.04	1027.9	281.54	287.74	274.74	251.74	273.94	271.54	273.34	272.14	249.54	284.74	285.14	281.94	287.74	271.14	252.94	239.34	239.34
424.825	4324.26	1037.3	307.12	269.32	287.32	287.32	265.92	306.32	294.72	287.92	296.72	266.72	288.72	262.52	308.52	300.32	304.52	267.12	267.12
425.099	4500.9	1026.48	295.913	311.98	286.78	299.78	306.58	296.18	284.18	291.78	285.58	296.98	308.18	304.18	298.18	312.38	286.18	270.58	270.58
425.373	4679.09	1041.56	310.3	302.5	272.9	317.1	299.1	305.9	298.1	300.7	299.9	305.5	309.5	288.5	300.9	317.9	297.5	318.5	318.5
425.647	4928.73	1035.08	343.74	341.74	308.34	326.34	346.94	343.94	357.74	307.74	313.74	312.14	315.94	300.54	326.74	330.54	309.94	372.34	372.34
425.921	5037.36	1034.88	338.773	310.24	309.44	313.44	344.24	312.24	351.44	325.84	329.24	319.24	316.44	319.24	332.24	317.04	340.64	317.64	317.64
426.195	5113.26	1032.28	338.513	358.38	340.38	309.18	329.58	369.98	329.58	302.78	312.98	313.78	322.78	335.18	331.58	329.38	337.18	337.98	337.98
426.469	5385.73	1034.68	345.8	344.2	348.6	351.8	362.8	375	363.8	339.8	345	346.2	350.6	346	371.6	372.8	325.4	331.4	331.4
426.743	5649.55	1032.1	371.507	380.04	349.84	403.24	368.04	353.84	349.04	365.24	372.44	370.84	346.84	380.04	339.84	338.04	351.44	373.24	373.24
427.017	5781.29	1031.8	373.973	391.64	360.24	363.24	364.44	350.64	371.24	375.64	352.04	362.24	346.24	385.24	384.84	374.04	358.24	398.04	398.04
427.291	6014.73	1028.98	401.267	379.2	402	391.6	395.6	398.2	381.4	397	374.6	362.4	407	385	416.8	363.4	384	402.2	402.2
427.565	6244.66	1025.2	402.373	400.84	410.44	412.84	380.04	387.24	414.64	390.44	402.04	414.84	396.64	409.64	418.64	410.84	417.24	404.64	404.64
427.838	6431.49	1040.64	423.553	414.62	439.02	448.42	395.62	405.02	403.42	407.02	426.22	387.42	411.42	420.22	411.22	441.82	402.82	392.62	392.62
428.112	6663.32	1040.46	447.28	435.28	419.48	391.08	420.48	417.28	422.68	377.68	426.28	417.08	410.28	429.68	426.48	403.68	412.08	403.28	403.28
428.385	6841.81	1032.9	444.14	420.94	429.54	433.54	423.34	431.14	440.14	414.14	412.74	406.54	382.94	427.34	419.34	441.74	429.34	439.74	439.74
428.659	7079.69	1030.9	470.833	481.1	463.3	461.5	492.1	473.3	461.3	471.7	464.5	436.9	429.1	461.9	449.9	484.1	451.2	467.7	467.7
428.932	7310.97	1034.04	482.213	465.28	481.08	479.88	469.48	458.28	432.08	490.48	455.88	429.48	464.08	483.48	447.48	455.68	467.08	495.48	495.48
429.206	7491.87	1045.2	491.833	449.1	478.3	483.5	461.1	464.1	471.3	470.1	455.9	466.9	471.1	467.1	474.3	484.1	464.3	470.1	470.1
429.479	7851.67	1029.7	506.1	491.1	470.9	453.1	485.7	477.3	494.5	492.7	476.5	481.1	481.3	512.3	484.7	487.7	499.9	471.1	471.1
429.753	7903.38	1031.94	526.38	518.98	479.58	483.38	490.98	487.58	516.38	503.58	515.18	502.78	489.18	454.98	492.78	512.38	474.18	485.18	485.18
430.026	8105.87	1037.74	513.12	505.32	501.52	535.72	519.92	482.52	534.52	514.12	501.52	499.12	514.72	523.52	527.32	507.72	517.52	504.52	504.52
430.299	8422.05	1035.98	561.373	527.44	524.04	522.64	547.84	518.84	553.84	533.24	528.24	524.64	520.44	512.24	535.04	520.84	535.04	511.84	511.84
430.572	8729.51	1035.42	580.547	602.68	552.08	553.08	567.68	555.68	554.68	549.88	578.68	555.68	525.08	546.68	535.08	548.68	553.28	567.28	567.28
430.845	8948.34	1042.98	571.247	575.38	564.38	552.38	589.18	561.78	571.58	612.18	586.38	552.38	580.98	547.78	576.78	573.78	577.18	540.78	540.78
431.118	9027.42	1039.3	606.347	592.48	576.88	589.68	606.48	582.88	589.68	573.68	579.28	544.88	553.08	589.28	540.88	565.88	564.28	586.28	586.28
431.391	9179.7	1031.68	582.987	589.72	580.52	595.92	582.52	580.92	582.12	570.12	581.72	579.32	583.32	570.72	587.92	593.32	595.32	591.92	591.92
431.664	9421.46	1030.9	627.313	604.38	584.98	606.38	629.78	590.18	624.78	587.98	613.18	595.98	581.38	595.18	571.58	623.98	589.78	612.18	612.18
431.937	9687.49	1036.92	638.607	645.34	624.74	635.54	627.34	637.54	615.34	615.54	603.34	610.54	599.14	600.14	611.54	588.54	604.94	632.74	632.74
432.21	9951.87	1040.82	656.72	673.92	641.72	642.72	631.92	675.92	639.92	648.12	657.12	585.52	626.12	644.52	637.92	643.32	608.12	633.32	633.32
432.483	10196.8	1020.82	670.027	658.36	639.96	639.56	642.36	659.96	676.96	631.36	657.76	658.76	632.96	646.36	645.76	633.56	618.36	663.16	663.16
432.755	10401.5	1028.12	695.88	671.08	669.08	635.68	670.48	663.88	705.88	679.08	659.08	669.68	645.68	683.48	663.88	645.08	650.48	659.28	659.28
433.028	10577.4	1033.68	706.623	682.09	701.29	675.99	700.89	694.69	686.69	674.69	672.49	680.09	631.89	680.29	673.89	675.09	686.29	652.29	652.29
433.301	10740.1	1033.7	707.06	708.06	722.66	731.06	723.26	693.06	708.46	694.66	684.66	684.06	687.86	677.46	721.66	702.66	717.26	700.06	700.06
433.573	10872.2	1026.82	726.3	703.7	712.1	703.9	724.1	715.3	716.3	706.3	705.3	705.9	712.1	685.1	684.1	703.3	701.3	715.1	715.1
433.846	11440.7	1036.34	762.427	734.56	742.56	766.16	751.16	764.36	727.76	730.96	759.96	727.56	709.16	734.96	743.96	727.76	755.36	726.76	726.76
434.118	11313.3	1029.76	772.073	752.94	761.54	747.94	758.94	736.74	729.94	750.34	772.14	764.54	727.14	741.94	755.54	746.94	762.14	732.34	732.34
434.391	11405	1033.72	750.953	715.82	729.02	739.22	698.02	743.62	748.42	733.42	756.62	733.02	717.82	728.82	723.22	724.62	760.82	732.62	732.62
434.663	11730.8	1040.61	792.88	759.68	781.08	746.28	774.48	755.48	774.08	799.68	764.08	741.88	759.88	803.08	754.68	764.08	779.28	734.28	734.28
434.936	12043.1	1029.52	805.907	787.44	765.64	791.24	770.24	769.84	786.24	774.44	802.04	812.64	826.84	785.44	771.64	785.04	766.04	756.64	756.64
435.208	12122.4	1036.4	798.273	813.74	805.94	847.54	795.54	807.74	809.94	795.34	785.34	804.54	760.14	780.14	801.34	766.74	798.74	781.74	781.74
435.48	12474.5	1038.94	837.12	828.72	808.12	823.12	846.52	786.12	855.32	804.32	810.32	834.12	802.52	789.52	862.12	823.52	808.92	838.32	838.32
435.752	12544.1	1034.88	830.027	852.56	830.36	825.96	840.96	820.16	847.56	839.36	801.16	838.16	825.56	830.16	817.76	838.56	821.36	823.16	823.16
436.024	12632.3	1038.82	878.9	839.3	846.9	847.9	849.9	862.3	878.3	843.5	840.3	843.1	849.9	884.5	827.1	834.1	872.3	839.1	839.1
436.296	12978.7	1033.98	886.413	877.48	870.68	858.48	873.28	884.48	887.88	874.08	860.88	892.88	865.48	837.88	868.08	867.08	865.68	852.88	852.88
436.568	13299.7	1034.24	917.167	898.9	873.1	901.9	923.7	891.9	872.5	858.9	872.9	898.1	887.7	927.5	890.9	892.1	902.3	909.3	909.3
436.84	13344.7	1035.24	936.567	922.7	906.3	890.9	870.3	893.3	880.7	916.5	897.1	889.9	902.1	916.5	913.7	879.3	882.1	872.1	872.1
437.112	13711.1	1045.22	959.907	950.84	938.64	919.24	937.04	939.84	918.64	939.04	932.04	910.44	949.64	939.84	941.24	903.44	912.64	907.04	907.04
437.384	14138	1037.54	967.74	949.54	974.34	954.94	943.14	946.34	945.34	950.94	976.14	966.34	961.54	945.14	973.74	936.14	976.14	918.54	918.54
437.656	14124.4	1032.86	978.56	935.36	948.36	924.96	935.96	930.56	965.96	990.16	945.96	956.16	959.36	967.56	947.36	953.36	938.36	946.16	946.16
437.928	14231.4	1033.74	978.627	929.16	977.56	926.76	979.96	959.96	980.96	944.76	946.36	952.76	939.56	964.16	939.16	946.16	921.56	952.56	952.56
438.199	14726.1	1037.18	1035.85	996.92	1016.12	1005.32	995.52	1017.12	977.32	972.52	971.52	952.52	1004.72	996.92	1016.52	999.32	970.32	1005.32	1005.32
438.471	15112.5	1031.54	1042.71	1046.58	1029.58	1033.58	1024.78	978.58	1058.18	1006.58	1039.18	997.78	1052.58	1020.58	993.58	1010.58	1012.98	991.58	991.58
438.743	15031.8	1035.66	1045.24	1026.04	1043.44	1045.44	1025.44	1017.24	1037.04	1037.84	1007.64	1013.24	971.64	1022.64	1017.44	1004.44	1057.84	1011.64	1011.64
439.014	15520.4	1028.82	1078.29	1060.62	1052.62	1033.82	1104.62	1066.62	1073.62	1076.82	1029.62	1047.02	1028.62	1023.02	1025.22	1066.82	1053.62	1037.62	1037.62
439.286	15873.8	1037.34	1080.73	1089.6	1064.4	1076.8	1033.2	1043.8	1048.8	1077.4	1064	1035.6	1074.8	1052.2	1048.6	1011.2	1050.2	1047.2	1047.2
439.557	15808.6	1038.04	1088.21	1098.74	1061.14	1093.14	1107.74	1071.74	1065.54	1085.34	1076.94	1072.54	1053.34	1081.74	1055.74	1047.34	1071.94	1048.74	1048.74
439.828	16376.8	1033.88	1154.11	1111.38	1089.18	1139.38	1104.38	1109.98	1126.58	1122.58	1122.18	1120.18	1109.58	1101.58	1102.58	1122.38	1093.98	1121.98	1121.98
440.1	16777.5	1037.58	1165.71	1155.18	1141.38	1140.18	1171.98	1174.58	1138.78	1150.38	1140.78	1170.78	1094.18	1117.58	1127.18	1121.98	1156.38	1152.38	1152.38
440.371	16694.5	1038.48	1172.57	1142.24	1146.04	1169.84	1170.04	1157.04	1131.24	1146.24	1163.24	1147.84	1120.44	1157.44	1128.64	1144.84	1084.24	1106.24	1106.24
440.642	17201.6	1043.28	1205.89	1206.56	1223.36	1196.76	1154.56	1195.36	1152.36	1187.16	1165.56	1194.56	1160.36	1190.76	1164.36	1184.16	1174.56	1135.16	1135.16
440.913	17586.5	1035.4	1236.93	1242.66	1216.26	1175.66	1226.66	1208.06	1192.46	1233.86	1228.06	1214.66	1165.26	1213.46	1233.66	1199.66	1205.46	1172.26	1172.26
441.184	17794	1034.84	1260.43	1229.16	1273.16	1242.36	1232.56	1275.56	1213.16	1196.36	1195.16	1242.56	1194.16	1192.36	1232.76	1209.76	1216.96	1204.36	1204.36
441.456	18180.6	1029.14	1293.58	1264.38	1262.78	1272.18	1251.98	1245.98	1246.38	1234.98	1259.18	1257.58	1263.98	1255.18	1233.18	1216.98	1267.38	1230.78	1230.78
441.727	18413.2	1030.1	1283.21	1291.54	1285.74	1272.14	1252.54	1267.94	1254.34	1263.74	1256.74	1276.34	1228.54	1254.94	1233.74	1211.14	1246.74	1290.74	1290.74
441.998	18848.1	1026.26	1328.22	1288.69	1289.69	1309.29	1348.89	1287.89	1311.09	1321.89	1316.29	1274.29	1251.49	1295.89	1272.09	1278.89	1272.69	1302.29	1302.29
442.268	19392.6	1034.42	1369.21	1368.14	1368.94	1354.94	1336.34	1346.14	1383.74	1335.94	1352.74	1335.74	1388.94	1300.54	1332.94	1362.34	1319.74	1300.94	1300.94
442.539	19370.6	1036.98	1384.67	1345.8	1353	1372	1345.2	1358.2	1348.8	1352	1334	1310.4	1370.6	1302.2	1307.6	1326.8	1321	1324.6	1324.6
442.81	20290	1029.4	1437.45	1437.72	1407.32	1395.12	1424.92	1391.32	1404.52	1368.12	1388.12	1395.32	1372.12	1364.12	1397.92	1422.52	1338.72	1392.12	1392.12
443.081	20151.4	1035.55	1457.97	1431.84	1439.84	1413.24	1369.24	1411.44	1406.44	1390.64	1382.44	1420.64	1376.04	1398.64	1386.84	1406.84	1411.84	1404.44	1404.44
443.352	20682	1037.36	1486.77	1424.84	1460.04	1452.04	1452.64	1444.84	1420.04	1428.44	1445.84	1445.64	1425.04	1399.64	1400.04	1447.24	1402.84	1428.04	1428.04
443.622	20915.1	1040.96	1497.59	1463.86	1463.26	1497.66	1463.66	1509.06	1461.46	1439.66	1425.06	1436.66	1460.06	1418.66	1431.46	1405.06	1450.26	1456.26	1456.26
443.893	21308.2	1032.2	1540.41	1511.74	1505.14	1523.14	1513.34	1505.54	1478.14	1486.54	1489.74	1494.54	1519.14	1513.94	1442.14	1503.54	1455.34	1498.34	1498.34
444.163	21839.2	1039.64	1579.57	1538.84	1560.64	1585.24	1510.84	1534.24	1532.44	1550.04	1546.24	1505.44	1545.64	1501.64	1519.24	1511.84	1558.64	1530.04	1530.04
444.434	22149.1	1039.24	1597.49	1579.56	1570.56	1558.76	1564.96	1603.16	1551.36	1545.56	1596.76	1533.76	1566.36	1528.16	1544.16	1535.56	1505.56	1583.76	1583.76
444.704	22429.9	1039.28	1622.41	1615.94	1593.74	1574.94	1582.94	1562.74	1596.34	1574.54	1586.74	1558.54	1578.14	1577.14	1569.34	1569.94	1574.34	1616.54	1616.54
444.975	22919.3	1045.32	1671.54	1637.94	1623.54	1642.34	1610.14	1670.34	1638.14	1598.74	1629.34	1615.74	1629.34	1591.74	1587.34	1633.34	1574.74	1614.34	1614.34
445.245	22974.9	1035.98	1679.9	1649.5	1635.1	1638.5	1640.1	1643.5	1651.7	1620.3	1622.1	1667.5	1591.1	1624.7	1625.7	1624.7	1607.1	1618.5	1618.5
445.515	24052.1	1035.22	1763.77	1747.04	1713.84	1698.24	1727.04	1744.04	1717.24	1734.44	1699.64	1699.44	1684.64	1678.44	1663.24	1697.84	1666.24	1654.64	1654.64
445.786	23975.5	1038.96	1749.16	1739.56	1702.56	1679.96	1702.16	1746.16	1702.16	1727.36	1700.76	1677.16	1673.76	1697.36	1687.56	1705.76	1682.96	1661.36	1661.36
446.056	24639.7	1041.24	1790.36	1774.76	1749.36	1782.16	1770.16	1755.96	1764.76	1751.96	1758.56	1781.36	1698.36	1731.96	1695.96	1728.36	1715.96	1721.56	1721.56
446.326	24847.5	1035.5	1827.12	1744.12	1799.52	1808.12	1786.32	1780.32	1745.32	1785.72	1803.32	1739.52	1793.72	1776.32	1743.12	1778.12	1749.12	1748.72	1748.72
446.596	25224.9	1040.26	1835.33	1816.06	1849.26	1812.86	1808.66	1812.66	1806.86	1799.26	1815.66	1733.66	1795.46	1774.26	1789.26	1783.26	1757.66	1807.86	1807.86
446.866	25501.2	1030.36	1857.42	1846.82	1820.62	1816.62	1834.02	1843.62	1795.42	1819.22	1786.42	1813.22	1808.62	1799.42	1812.82	1802.22	1788.82	1797.22	1797.22
447.136	25743.3	1041.48	1893.01	1856.34	1902.94	1841.14	1879.74	1826.14	1869.54	1871.94	1840.94	1843.14	1843.14	1807.54	1850.54	1787.14	1849.54	1825.14	1825.14
447.406	25906	1042.4	1916.86	1924.86	1929.86	1879.26	1914.86	1863.46	1866.26	1844.46	1870.46	1838.46	1860.06	1874.06	1847.86	1843.26	1839.66	1895.26	1895.26
447.676	26311.4	1034.28	1971.8	1953.4	1923.6	1932.2	1947.4	1909.8	1883.2	1933	1905.6	1918.8	1875.6	1887.8	1909.4	1890.6	1891	1853	1853
447.946	26827.6	1038.64	2001.13	1980.36	1973.16	1950.56	1966.36	1950.96	1920.56	1906.96	1934.76	1916.76	1961.96	1942.16	1928.76	1939.36	1926.16	1878.16	1878.16
448.215	26646.9	1030.72	1995.03	1996.3	1985.7	1946.3	1991.5	1914.5	1963.5	1940.7	1920.7	1930.1	1950.9	1911.7	1953.7	1916.5	1919.7	1929.3	1929.3
448.485	26791.3	1042.1	2006.69	1972.42	1979.22	1970.02	1981.42	1917.62	1956.02	1955.62	1959.62	1906.82	1975.82	1926.02	1946.82	1920.82	1951.62	1948.22	1948.22
448.755	27135.4	1034.46	2064.27	2030.4	2010	1988.8	1959.8	1988	1987	1988.2	1997.2	1997.6	2003.4	1973.8	2032.8	1985	1943	1964.4	1964.4
449.024	27508	1042.52	2078.79	2052.46	2045.26	2027.06	2015.66	2010.26	2041.26	1984.86	1995.26	1988.06	1967.26	2025.26	2009.46	2027.86	2006.86	1972.86	1972.86
449.294	27269.9	1027.66	2092.63	2042.1	2028.3	2031.5	2033.3	2013.7	2018.9	2029.1	2006.3	2039.7	2023.3	2044.7	2024.9	2031.7	1999.3	1967.9	1967.9
449.563	27330.9	1035.06	2096.51	2058.44	2015.64	2088.84	2074.44	2032.84	2030.04	2020.44	2018.64	2022.04	2022.84	2032.44	1996.84	2001.64	2001.04	1994.64	1994.64
449.833	27548.3	1041.44	2121.53	2137.2	2099.2	2098.4	2038	2093	2044.4	2057.8	2079.6	2082.6	2075.4	2038.2	2077.8	2052	2014.6	2032.4	2032.4
450.102	27971.1	1032.7	2182.67	2134.14	2129.34	2157.14	2132.54	2120.34	2073.14	2112.94	2085.14	2120.74	2060.54	2086.94	2080.74	2109.54	2063.54	2097.54	2097.54
450.372	27963.5	1034.42	2194.22	2163.62	2122.82	2159.02	2141.02	2131.02	2122.62	2131.02	2122.42	2124.82	2107.22	2054.42	2096.82	2125.82	2075.42	2093.82	2093.82
450.641	27496.9	1026.94	2160.15	2134.82	2131.22	2076.02	2078.02	2098.22	2071.02	2079.62	2135.62	2049.22	2050.52	2059.42	2091.82	2091.82	2068.42	2053.02	2053.02
450.91	27003.1	1038.32	2123.7	2117.5	2101.3	2117.1	2097.3	2094.3	2108.1	2051.7	2064.9	2039.5	2070.7	2069.3	2054.7	2055.1	2038.1	2053.3	2053.3
451.179	26860.6	1031.12	2155.23	2138.3	2105.9	2034.1	2070.7	2107.7	2085.1	2062.3	2076.9	2085.3	2076.1	2067.5	2044.1	2088.7	2063.5	2022.1	2022.1
451.448	27428.9	1039.42	2199.87	2178.94	2140.94	2145.34	2132.74	2136.94	2109.34	2106.94	2111.34	2140.54	2106.54	2107.54	2146.34	2152.34	2085.14	2114.74	2114.74
451.717	26384.5	1032.04	2147.55	2117.48	2111.48	2107.68	2091.08	2095.48	2059.48	2030.48	2058.08	2068.08	2036.48	2064.88	2071.68	2084.48	2015.88	2042.28	2042.28
451.986	26978.5	1037.78	2185.41	2151.54	2129.74	2161.14	2137.94	2160.34	2110.34	2139.54	2142.14	2114.14	2099.14	2148.14	2092.34	2100.94	2135.34	2131.34	2131.34
452.255	26369.4	1032.66	2171.87	2148.87	2120.47	2127.87	2128.87	2117.27	2107.27	2078.87	2077.87	2118.27	2085.27	2041.87	2107.07	2085.27	2083.27	2058.47	2058.47
452.524	25906.6	1031	2148.56	2115.76	2084.16	2096.76	2099.76	2083.16	2073.96	2092.56	2051.36	2083.76	2035.16	2046.16	2072.56	2116.56	2064.56	2014.36	2014.36
452.793	26166	1038.76	2175.71	2152.18	2124.38	2134.58	2096.18	2113.98	2147.58	2105.58	2136.38	2091.78	2113.18	2078.78	2114.58	2111.38	2085.78	2041.58	2041.58
453.062	25685.7	1036.28	2154.55	2106.02	2094.82	2103.02	2108.82	2092.62	2091.02	2105.22	2056.82	2026.02	2065.02	2037.22	2075.02	2075.02	2064.22	2048.42	2048.42
453.331	25412.9	1031.3	2149.47	2128	2103.8	2101.6	2098.6	2090.4	2055	2081	2138	2021.4	2049.8	2049	2050	2053.8	2021.8	2012.2	2012.2
453.6	24989.8	1032.6	2135.41	2119.88	2077.28	2081.08	2083.48	2031.68	2020.88	2081.88	2062.48	2047.28	2037.08	2071.68	2043.68	2014.48	2032.08	2044.28	2044.28
453.868	24542.7	1039.68	2078.81	2079.68	2069.68	2075.88	2048.68	2066.48	2061.88	2025.08	2036.28	2024.28	2027.08	1996.08	2012.88	2050.08	2051.68	2008.08	2008.08
454.137	24320.4	1040.24	2130.23	2069.9	2033.9	2061.3	2024.3	2039.9	2065.5	2042.7	2019.3	2072.1	2059.7	1969.9	2007.9	1997.3	2005.1	2026.9	2026.9
454.405	23810.9	1029.12	2066.53	2049.66	2035.06	2027.66	2062.06	1999.86	2011.06	1973.66	1991.86	1981.86	2002.06	1973.46	1969.46	1976.66	1976.26	1974.26	1974.26
454.674	23436.6	1035.92	2056.02	2007.22	2035.62	1970.62	1986.42	1947.62	2013.22	1994.02	1987.62	1935.02	1939.02	1953.02	1951.82	1967.62	1951.82	1931.42	1931.42
454.942	23098.7	1041.48	2023.87	1984.4	1985	1981.6	1986.2	1968.2	2001.2	1978.8	1968.2	1968.8	1908.8	1973.8	1972.6	1949.6	1937.4	1913.4	1913.4
455.211	22795.9	1033.56	1984.87	1965.74	1991.54	1950.34	1978.54	1972.14	1927.74	1924.94	1915.74	1966.14	1972.54	1961.14	1884.34	1915.74	1939.34	1883.54	1883.54
455.479	21681.6	1038.36	1940.57	1906.44	1925.84	1901.84	1891.84	1846.44	1847.64	1859.04	1866.24	1881.64	1816.04	1863.24	1863.44	1846.04	1861.24	1846.84	1846.84
455.747	21813.5	1032.64	1952.43	1944.56	1908.56	1941.36	1893.96	1860.76	1891.96	1882.96	1881.16	1876.96	1814.36	1891.16	1873.16	1841.96	1843.36	1848.06	1848.06
456.016	21753.6	1040.75	1951.93	1946.2	1919.2	1904.6	1932	1911.8	1901	1881.2	1885.6	1865.6	1913	1896.6	1884.2	1904.6	1847.2	1843	1843
456.284	20947.2	1039.64	1918.69	1831.22	1859.42	1853.42	1840.42	1843.02	1856.82	1827.82	1823.62	1816.82	1795.82	1808.22	1855.62	1839.22	1856.22	1840.82	1840.82
