#Wavelength [nm]	White Std.	Dark spec	0[s]	19.307[s]	39.359[s]	59.449[s]	79.534[s]	99.569[s]	119.606[s]	139.731[s]	159.762[s]	179.874[s]	199.916[s]	219.971[s]	240.047[s]	260.146[s]	280.297[s]	300.409[s]	300.426[s]
420.156	2097.42	1031.22	136.073	168.54	148.74	153.94	135.54	146.14	135.94	134.54	151.34	138.34	135.64	138.94	174.54	147.74	146.14	134.94	134.94
420.431	2166.58	1025.76	144.493	159.56	169.76	152.16	141.16	155.36	132.36	142.96	131.56	126.16	161.76	147.56	155.16	138.96	159.76	165.76	165.76
420.706	2268.67	1048.8	138.44	158.24	153.04	145.44	150.24	135.24	125.44	135.84	160.84	148.04	143.24	131.24	141.64	125.84	152.44	122.64	122.64
420.981	2380.65	1027.68	159.22	151.42	159.62	168.82	164.02	163.62	156.22	146.42	166.02	173.42	158.82	154.42	155.62	160.82	157.42	154.82	154.82
421.256	2499.86	1041.15	169.547	187.08	143.88	140.88	140.68	161.08	145.28	167.28	151.48	146.08	145.48	149.48	167.28	135.88	153.88	136.88	136.88
421.531	2620.01	1030	179.76	167.96	180.16	179.76	150.96	174.76	167.96	172.96	158.56	134.76	161.16	169.96	183.76	162.56	188.16	165.76	165.76
421.805	2755.52	1037.5	192.46	166.26	156.86	180.46	197.46	168.46	145.66	175.06	168.06	147.26	167.06	188.46	171.46	169.86	181.06	178.26	178.26
422.08	2816.77	1038.44	173.84	198.44	182.84	191.04	173.64	170.64	145.44	178.64	177.24	190.84	136.84	164.04	178.24	164.24	183.24	166.84	166.84
422.355	3038.76	1044.6	196.14	187.74	204.74	198.34	156.54	202.14	182.14	197.74	204.74	178.94	179.94	207.54	188.34	176.94	186.14	196.94	196.94
422.63	3131.63	1041.44	212.56	180.36	209.76	179.36	205.36	195.96	172.96	152.16	186.36	176.36	180.76	203.36	174.76	182.76	185.36	200.16	200.16
422.904	3226.56	1033.22	201.407	189.74	200.54	154.54	186.54	223.94	208.54	192.74	216.94	217.94	198.34	200.14	173.54	220.74	205.14	198.34	198.34
423.179	3334.87	1038.92	233.9	214.7	199.9	204.1	201.7	224.9	220.5	210.7	223.9	205.9	207.2	218.9	214.9	212.5	210.9	205.1	205.1
423.453	3481.44	1037.02	230.64	221.24	195.64	183.64	224.04	211.44	201.84	196.64	176.24	199.24	165.24	199.24	215.44	200.44	217.84	225.84	225.84
423.728	3684.03	1032.62	223.073	212.54	228.34	214.54	213.54	220.34	211.54	234.14	226.34	184.34	212.54	213.74	222.74	200.34	198.94	228.34	228.34
424.002	3801.02	1041.76	243.047	219.18	228.38	245.18	195.98	205.58	231.98	222.78	243.38	256.18	232.98	234.58	277.38	235.38	238.58	221.18	221.18
424.276	3962.07	1037.27	240.5	236.1	233.1	238.3	238.5	247.3	247.7	259.5	237.5	253.5	246.1	229.7	248.7	241.9	222.7	240.1	240.1
424.551	4161.04	1029.36	254.54	223.34	239.14	239.74	276.14	243.94	230.14	250.14	233.54	253.94	255.94	256.74	230.94	256.74	252.74	252.34	252.34
424.825	4324.26	1030.6	282.56	269.96	269.16	263.36	276.96	286.56	262.96	282.16	280.76	249.96	267.56	268.36	271.16	253.76	281.16	307.56	307.56
425.099	4500.9	1037	268.86	290.86	277.86	283.26	263.06	287.06	271.86	307.26	243.26	275.46	257.06	237.26	271.26	264.86	256.66	262.46	262.46
425.373	4679.09	1029.98	288.353	272.02	296.62	302.62	260.22	292.62	279.82	299.82	251.62	255.02	293.42	257.42	254.22	259.42	284.62	274.22	274.22
425.647	4928.73	1035.14	274.22	297.42	287.02	332.42	290.42	270.62	288.62	304.22	284.22	264.82	299.42	299.62	299.22	277.82	265.62	286.72	286.72
425.921	5037.36	1039.14	290.16	291.76	317.96	290.16	290.56	320.16	302.76	305.36	305.76	296.56	307.16	268.36	321.96	314.76	280.96	319.16	319.16
426.195	5113.26	1040.68	314.13	325.93	323.33	334.53	311.33	309.13	301.93	299.53	304.53	291.33	318.33	309.33	319.53	324.93	313.73	284.13	284.13
426.469	5385.73	1028.86	328.1	353.5	342.1	351.5	318.5	334.3	332.3	308.1	313.3	333.3	317.1	316.9	322.3	309.9	338.7	318.9	318.9
426.743	5649.55	1035.36	352.333	360.6	353.6	328.8	344.8	330.2	325.2	335.2	362.6	341	364.4	310.2	318.6	339.4	336.6	316.8	316.8
427.017	5781.29	1035.34	351.49	376.29	331.09	349.49	336.49	342.69	319.09	349.69	323.49	329.49	322.69	329.49	333.89	322.29	319.69	315.09	315.09
427.291	6014.73	1035.48	353.987	357.72	347.92	348.72	349.12	325.52	324.52	342.32	344.92	345.72	371.12	348.72	355.72	353.32	337.92	353.12	353.12
427.565	6244.66	1032.52	376.487	394.02	365.82	375.22	336.22	363.02	354.02	345.02	361.42	362.62	358.62	368.62	362.82	357.82	364.22	382.62	382.62
427.838	6431.49	1038.68	394.68	367.28	373.88	375.68	367.28	390.48	387.48	386.48	388.08	359.28	367.68	385.08	363.68	409.68	376.88	387.28	387.28
428.112	6663.32	1034.72	404.52	374.32	362.92	399.32	380.72	364.92	381.52	392.52	406.72	386.52	377.52	372.32	380.92	400.12	384.72	376.92	376.92
428.385	6841.81	1034.86	424.22	403.42	382.82	437.22	445.62	419.42	404.62	390.62	418.22	418.62	409.42	400.22	421.22	383.22	413.42	411.62	411.62
428.659	7079.69	1040.88	438.887	430.82	424.42	431.22	409.82	407.42	401.02	401.82	425.02	394.42	417.22	437.02	410.22	420.82	393.62	421.02	421.02
428.932	7310.97	1040.1	438.507	429.84	463.64	456.44	442.04	417.64	390.24	408.84	422.84	416.24	385.84	445.04	445.64	418.64	438.64	438.64	438.64
429.206	7491.87	1039.7	445.433	423.1	457.1	426.3	410.3	438.7	439.7	449.7	428.7	419.3	421.9	451.7	426.1	433.5	443.3	445.5	445.5
429.479	7851.67	1031	474.573	466.64	500.64	457.64	476.24	463.64	460.44	478.24	450.04	463.44	433.64	479.84	460.64	423.54	440.04	456.64	456.64
429.753	7903.38	1033.06	459.993	490.06	449.26	459.26	474.06	450.06	499.26	465.46	456.86	478.46	501.66	485.26	434.46	460.66	460.26	464.46	464.46
430.026	8105.87	1028.04	487.58	469.38	472.58	466.58	482.98	459.18	478.78	475.78	479.18	482.78	484.98	464.98	489.78	438.18	473.18	446.58	446.58
430.299	8422.05	1032.5	502.473	487.14	507.54	491.94	460.34	479.14	467.54	498.94	498.14	485.74	481.34	477.74	490.94	494.94	490.54	496.74	496.74
430.572	8729.51	1034.1	521.107	523.64	516.84	501.04	493.84	480.84	502.04	497.24	491.84	533.24	512.84	480.64	514.04	497.64	512.24	479.84	479.84
430.845	8948.34	1033.14	559.04	535.84	532.04	526.64	508.24	537.24	530.04	537.44	532.44	523.04	544.04	521.84	523.84	519.64	519.84	511.04	511.04
431.118	9027.42	1042.2	546.833	518.5	545.5	539.5	537.9	556.9	504.3	539.9	558.9	502.3	526.7	498.5	525.7	522.3	507.1	516.1	516.1
431.391	9179.7	1032.4	556.827	538.76	571.36	563.56	537.16	510.56	560.16	550.96	568.96	542.76	527.36	506.36	541.56	574.16	532.16	550.36	550.36
431.664	9421.46	1034.54	575.927	553.46	550.86	547.46	555.46	545.06	554.86	558.86	568.26	573.26	545.06	560.66	559.46	563.06	559.66	537.46	537.46
431.937	9687.49	1036.88	592.533	601	588.6	599.6	577.2	559.6	574	578.6	530.4	591.6	569.4	575.8	556.6	544	564	576.6	576.6
432.21	9951.87	1035.36	611.243	630.51	564.11	569.11	602.31	568.51	596.51	585.11	580.91	601.91	605.51	599.91	580.91	596.31	588.31	591.91	591.91
432.483	10196.8	1037.64	622.357	599.49	611.49	597.09	574.89	618.09	607.89	591.89	603.29	601.09	574.09	603.49	587.09	597.89	610.29	591.29	591.29
432.755	10401.5	1038.04	619.673	636.54	624.14	613.14	604.34	632.54	619.54	610.74	588.94	595.74	624.34	566.34	592.14	616.74	611.14	606.94	606.94
433.028	10577.4	1033.04	642.427	648.96	637.96	617.76	612.36	640.96	623.36	640.56	586.56	594.36	605.96	630.36	619.96	630.76	594.36	602.16	602.16
433.301	10740.1	1037.42	643.493	647.76	671.16	676.56	640.86	619.96	626.96	601.56	655.76	624.96	621.16	618.36	613.96	634.76	621.96	626.56	626.56
433.573	10872.2	1047.52	648.387	701.72	693.92	650.52	648.32	628.12	626.32	632.72	633.72	651.72	642.52	635.32	602.72	630.12	617.12	612.92	612.92
433.846	11440.7	1040.58	697.54	702.14	686.94	700.34	699.94	695.94	675.54	662.14	692.34	670.74	665.74	721.34	662.54	684.54	693.34	676.94	676.94
434.118	11313.3	1035.82	698.753	676.42	635.02	713.62	711.22	672.42	706.82	682.22	697.02	678.02	699.42	701.82	698.02	685.22	663.42	671.02	671.02
434.391	11405	1027.7	722.04	700.64	684.24	712.04	687.84	669.04	679.24	682.64	665.24	717.04	667.04	666.64	682.04	655.24	694.84	677.84	677.84
434.663	11730.8	1037.7	732.667	708	732.4	705.6	704.8	700.6	718	699.8	684.6	700.6	704.8	698.4	680	699.2	684.6	710.4	710.4
434.936	12043.1	1038.8	734.373	714.04	720.04	722.64	747.64	721.24	708.24	731.24	706.24	738.84	680.44	707.84	728.44	721.24	721.04	726.04	726.04
435.208	12122.4	1037.2	768.9	727.1	748.4	734.5	733.1	716.7	727.9	731.1	749.1	711.5	724.7	718.9	700.1	734.9	703.1	763.1	763.1
435.48	12474.5	1036.54	789.887	758.82	752.62	749.02	750.22	749.02	760.62	753.82	743.02	753.22	734.22	723.62	775.02	737.02	764.42	744.62	744.62
435.752	12544.1	1038.08	775.827	761.36	762.76	779.16	780.96	774.36	772.16	772.56	751.16	781.16	747.56	755.96	754.76	759.56	753.16	748.76	748.76
436.024	12632.3	1042.2	808.867	795.2	786.6	808.4	796.6	794	760.2	768.4	801	745.2	760	733.2	788.2	784	781.2	734.8	734.8
436.296	12978.7	1042.2	830.153	806.82	822.42	807.22	788.02	779.22	779.22	779.42	806.22	780.62	780.42	779.22	778.42	774.62	758.02	773.42	773.42
436.568	13299.7	1035.34	854.493	821.16	827.56	815.36	829.56	770.16	788.36	814.56	839.76	809.76	842.16	820.96	816.36	789.16	832.36	826.96	826.96
436.84	13344.7	1036.58	840.467	835.8	853.2	829	828.2	825.6	819.8	813	803.8	800.4	809.6	830.6	811	809.8	790	804.8	804.8
437.112	13711.1	1035.55	855.507	866.84	858.04	816.84	846.04	851.44	874.04	815.44	866.04	850.84	846.44	820.44	830.44	835.24	817.24	840.64	840.64
437.384	14138	1046.46	900.933	861.8	850.4	872.2	884.2	873.2	863.4	852.6	887.4	880	876.8	868.4	864.4	873.8	836.6	881	881
437.656	14124.4	1042.44	885.08	855.08	860.48	849.88	864.08	860.48	841.08	854.08	893.48	872.48	878.08	841.48	835.68	870.48	863.88	850.68	850.68
437.928	14231.4	1028.86	896.333	917	893.2	875	867.6	886.4	862.8	895.2	885.2	885.6	881.6	883.2	907.4	885.2	871	851.8	851.8
438.199	14726.1	1035.16	925.293	904.36	914.76	906.56	897.16	891.96	851.16	881.36	889.76	870.96	898.16	927.16	918.56	892.76	880.96	909.96	909.96
438.471	15112.5	1028.7	956.247	901.18	914.58	937.58	888.58	965.58	934.18	910.78	920.18	925.38	953.38	913.98	918.58	928.18	913.38	937.58	937.58
438.743	15031.8	1030.04	938.993	954.46	930.26	926.26	941.86	902.86	945.26	916.06	911.86	920.46	936.46	950.46	896.86	910.26	906.66	938.26	938.26
439.014	15520.4	1042.08	1001.01	972.88	978.08	955.88	983.68	942.48	960.48	968.08	942.88	934.08	980.28	980.48	932.68	968.28	917.88	964.68	964.68
439.286	15873.8	1038.66	989.627	1029.16	1002.56	1009.56	965.96	981.56	975.56	954.96	995.96	1019.16	948.76	959.76	990.56	960.56	965.16	988.76	988.76
439.557	15808.6	1037.36	1015.89	1017.16	978.96	983.76	995.56	988.16	988.16	1002.96	979.36	961.36	993.36	973.76	960.16	974.16	997.66	975.96	975.96
439.828	16376.8	1034.04	1061.34	1012.64	1047.84	1012.44	1031.94	1013.64	1029.44	1053.24	1000.64	1019.64	998.84	1004.44	1004.24	1021.24	1023.64	1027.64	1027.64
440.1	16777.5	1026.66	1075.33	1046.4	1067.6	1028.2	1034.4	1046.4	1064.2	1030.8	1058.2	1012.2	1037.6	1006.2	991	1009.8	1037.6	1006	1006
440.371	16694.5	1034.24	1065.84	1060.44	1083.24	1051.04	1017.84	1052.24	1050.84	1055.04	1033.84	1039.04	1007.44	1000.64	1019.44	1011.24	999.24	1016.04	1016.04
440.642	17201.6	1036.28	1123.84	1084.44	1104.64	1089.24	1097.84	1071.04	1052.44	1086.64	1047.84	1062.44	1062.44	1074.44	1049.04	1050.04	1060.84	1064.04	1064.04
440.913	17586.5	1039.26	1133.04	1168.64	1141.64	1090.84	1121.64	1088.64	1114.84	1108.84	1095.84	1077.84	1069.24	1086.24	1095.24	1093.44	1113.24	1065.84	1065.84
441.184	17794	1031.4	1142.93	1166.46	1142.26	1116.86	1106.66	1088.06	1122.46	1098.46	1109.66	1088.26	1122.06	1075.26	1095.06	1085.66	1055.66	1070.06	1070.06
441.456	18180.6	1040.82	1167.68	1205.48	1156.28	1159.08	1155.48	1151.68	1131.48	1132.68	1144.48	1138.88	1171.88	1113.48	1113.48	1139.68	1149.08	1131.68	1131.68
441.727	18413.2	1032.4	1194.89	1187.82	1211.42	1174.62	1149.22	1150.22	1124.22	1142.82	1139.82	1156.42	1147.42	1137.82	1120.82	1143.42	1134.02	1139.82	1139.82
441.998	18848.1	1030.36	1201.64	1207.57	1189.37	1169.37	1161.77	1186.57	1188.57	1196.77	1175.57	1203.17	1189.57	1147.57	1190.97	1138.97	1152.37	1164.17	1164.17
442.268	19392.6	1030.44	1235.97	1227.84	1251.24	1219.84	1211.44	1237.24	1208.04	1185.04	1233.44	1215.44	1201.24	1192.64	1226.24	1202.64	1202.64	1206.44	1206.44
442.539	19370.6	1040	1255.13	1241.4	1247.6	1211.4	1223.6	1213	1225	1192.6	1221	1208.8	1204.2	1199.2	1208.8	1204.8	1210.2	1213.2	1213.2
442.81	20290	1040.04	1321.96	1317.16	1278.76	1317.56	1274.36	1278.76	1264.76	1260.36	1250.56	1270.76	1265.76	1267.56	1279.16	1274.76	1256.56	1270.16	1270.16
443.081	20151.4	1029.38	1312.6	1289	1273.4	1280.4	1270.4	1249.8	1280.8	1259	1284.8	1251.4	1247.2	1264.2	1236	1255.6	1253.2	1270	1270
443.352	20682	1039.7	1355.5	1311.7	1348.1	1334.5	1329.1	1313.3	1320.9	1322.1	1300.5	1280.9	1282.3	1297.5	1273.7	1291.3	1279.9	1297.1	1297.1
443.622	20915.1	1039.32	1381.77	1359.24	1321.84	1374.04	1319.24	1325.24	1311.44	1304.84	1331.44	1289.24	1313.04	1296.64	1311.04	1322.84	1323.44	1334.04	1334.04
443.893	21308.2	1034.2	1384.94	1374.14	1347.94	1386.54	1389.94	1354.34	1343.54	1365.14	1348.74	1359.14	1372.14	1341.94	1360.14	1336.94	1304.74	1339.54	1339.54
444.163	21839.2	1037.95	1449.58	1389.98	1436.18	1435.78	1416.38	1395.38	1381.18	1416.18	1407.18	1388.58	1370.78	1348.38	1386.78	1324.18	1364.18	1350.78	1350.78
444.434	22149.1	1039.86	1454.67	1415.54	1395.74	1431.34	1392.74	1429.54	1430.34	1411.54	1431.94	1406.14	1414.34	1362.34	1381.94	1407.74	1424.74	1417.74	1417.74
444.704	22429.9	1038.52	1459.32	1464.22	1435.82	1425.02	1400.22	1433.62	1388.22	1450.62	1396.82	1408.02	1435.22	1382.02	1393.02	1426.42	1393.82	1417.82	1417.82
444.975	22919.3	1037.7	1509.84	1484.84	1477.24	1463.04	1474.64	1436.44	1440.24	1466.84	1467.44	1446.64	1432.84	1422.64	1412.44	1440.04	1453.04	1458.44	1458.44
445.245	22974.9	1039.74	1503.35	1499.92	1476.72	1473.12	1496.92	1461.32	1451.32	1484.92	1441.72	1477.32	1450.32	1447.72	1416.92	1449.32	1446.32	1440.92	1440.92
445.515	24052.1	1041.58	1578.66	1542.86	1559.06	1536.26	1532.86	1583.46	1545.06	1542.66	1547.46	1533.06	1524.26	1476.66	1503.86	1514.26	1472.06	1517.46	1517.46
445.786	23975.5	1035.36	1591.81	1594.74	1576.14	1556.74	1509.54	1541.14	1555.74	1581.34	1524.14	1523.14	1537.14	1535.34	1539.74	1502.34	1547.34	1476.34	1476.34
446.056	24639.7	1031.32	1637.63	1652.5	1610.1	1598.5	1574.1	1608.1	1614.5	1582.9	1581.3	1562.9	1572.9	1542.1	1614.5	1565.7	1580.5	1555.7	1555.7
446.326	24847.5	1040.14	1658.36	1604.96	1637.96	1583.16	1580.36	1640.76	1564.96	1578.36	1588.76	1558.96	1582.36	1612.56	1551.76	1566.56	1591.16	1584.36	1584.36
446.596	25224.9	1038.62	1675.17	1636.84	1660.84	1633.84	1614.64	1639.04	1607.64	1637.24	1610.44	1621.74	1633.24	1608.44	1596.44	1593.64	1595.24	1617.64	1617.64
446.866	25501.2	1031.84	1704.49	1675.62	1675.22	1680.42	1668.42	1626.22	1636.62	1620.62	1623.02	1617.42	1623.82	1646.62	1609.22	1591.82	1629.42	1641.42	1641.42
447.136	25743.3	1028.52	1712.23	1694.9	1675.7	1683.7	1706.1	1683.9	1616.5	1665.9	1659.7	1654.1	1637.5	1637.5	1627.3	1635.3	1651.3	1641.9	1641.9
447.406	25906	1043.7	1728.21	1653.88	1677.88	1694.08	1677.68	1705.08	1678.88	1715.08	1701.48	1643.48	1639.08	1646.08	1693.08	1667.08	1663.88	1629.28	1629.28
447.676	26311.4	1031.8	1767.03	1738.76	1723.56	1714.16	1730.96	1737.56	1654.36	1706.96	1706.16	1705.76	1694.76	1702.16	1700.56	1710.56	1695.96	1635.36	1635.36
447.946	26827.6	1037.4	1822.25	1806.38	1772.58	1758.58	1728.38	1773.38	1721.38	1739.38	1772.78	1747.38	1744.98	1717.18	1740.98	1711.78	1743.18	1752.18	1752.18
448.215	26646.9	1040.16	1818.74	1811.54	1782.34	1802.94	1766.34	1749.94	1742.14	1730.54	1744.34	1727.54	1748.94	1730.14	1733.54	1712.74	1728.34	1738.54	1738.54
448.485	26791.3	1034.52	1823.69	1781.76	1799.36	1791.36	1774.76	1754.96	1774.16	1778.16	1767.96	1775.56	1729.16	1717.36	1724.76	1725.96	1763.56	1735.16	1735.16
448.755	27135.4	1038	1868.53	1841	1747.8	1806.4	1806.6	1814.8	1790.6	1767	1766.8	1791	1754.2	1759.8	1750.2	1777.8	1762.2	1724	1724
449.024	27508	1037.72	1861.35	1911.22	1850.42	1866.42	1845.62	1818.82	1826.22	1811.92	1818.02	1797.22	1788.02	1773.62	1825.62	1781.22	1797.02	1755.62	1755.62
449.294	27269.9	1039.04	1869.97	1874.5	1813.3	1828.7	1827.3	1830.5	1828.5	1823.3	1816.1	1814.5	1800.5	1800.5	1815.7	1757.3	1773.9	1790.7	1790.7
449.563	27330.9	1027.08	1883.63	1866.36	1843.76	1820.76	1844.56	1880.76	1837.56	1820.56	1820.56	1827.96	1800.96	1808.36	1803.76	1806.96	1796.76	1832.76	1832.76
449.833	27548.3	1034.42	1919.92	1899.32	1848.32	1884.92	1866.12	1862.32	1889.72	1862.72	1912.92	1802.92	1884.12	1866.92	1808.12	1814.12	1791.52	1815.72	1815.72
450.102	27971.1	1036.8	1937.71	1951.58	1894.78	1928.18	1889.98	1880.98	1879.88	1877.78	1859.98	1882.98	1881.18	1879.58	1859.98	1841.78	1862.38	1830.38	1830.38
450.372	27963.5	1047.94	1974.81	1916.94	1955.14	1939.54	1909.94	1912.34	1902.34	1867.14	1901.74	1888.74	1880.14	1875.74	1886.34	1868.14	1863.14	1865.94	1865.94
450.641	27496.9	1039.12	1943.74	1878.34	1938.54	1907.54	1887.34	1873.14	1865.34	1866.94	1848.54	1849.34	1860.54	1851.54	1862.14	1849.14	1843.54	1816.74	1816.74
450.91	27003.1	1037.52	1914.35	1907.42	1885.02	1881.82	1828.22	1846.82	1866.22	1841.02	1894.02	1833.62	1837.42	1805.22	1877.62	1853.62	1783.82	1824.62	1824.62
451.179	26860.6	1042.68	1917.07	1909.34	1932.34	1878.14	1893.54	1863.14	1870.74	1823.14	1869.34	1831.34	1847.94	1815.14	1861.14	1839.74	1837.54	1811.34	1811.34
451.448	27428.9	1030.95	1978.89	1970.16	1913.56	1933.36	1900.16	1910.16	1923.96	1886.96	1927.56	1938.96	1909.36	1846.56	1893.96	1884.16	1900.96	1892.56	1892.56
451.717	26384.5	1027.3	1905.56	1911.36	1860.96	1866.36	1872.96	1826.76	1876.16	1812.56	1839.96	1859.46	1830.76	1830.36	1866.56	1822.76	1842.36	1838.36	1838.36
451.986	26978.5	1041.72	1978.03	1966.96	1921.76	1939.56	1910.36	1897.76	1919.96	1928.96	1897.16	1853.56	1881.56	1879.96	1887.96	1881.56	1895.36	1854.56	1854.56
452.255	26369.4	1022.92	1923.67	1888.4	1891.6	1892.8	1862	1870.4	1856.6	1845.4	1879	1825.2	1822.8	1835.6	1806.6	1851	1829.6	1841.8	1841.8
452.524	25906.6	1034.02	1908.09	1876.42	1857.62	1892.22	1827.22	1841.62	1860.02	1843.22	1850.02	1855.42	1816.02	1797.42	1857.82	1834.42	1828.02	1790.42	1790.42
452.793	26166	1040.9	1928.39	1926.06	1891.66	1905.26	1857.66	1868.46	1926.66	1875.46	1871.26	1865.46	1869.86	1875.66	1844.66	1808.26	1837.46	1874.46	1874.46
453.062	25685.7	1038.38	1923.36	1885.96	1912.76	1856.36	1861.16	1847.76	1854.56	1823.96	1805.56	1839.76	1846.56	1838.56	1845.36	1841.16	1808.76	1828.16	1828.16
453.331	25412.9	1030.28	1915.25	1891.72	1882.12	1901.32	1851.92	1787.72	1874.32	1805.12	1841.32	1827.92	1808.92	1840.72	1844.92	1760.72	1819.12	1833.52	1833.52
453.6	24989.8	1042.54	1901.29	1836.56	1872.16	1840.56	1878.96	1823.96	1822.76	1769.96	1824.56	1793.76	1810.36	1822.16	1788.96	1818.76	1762.76	1791.56	1791.56
453.868	24542.7	1035.98	1876.22	1872.62	1851.22	1853.82	1783.82	1788.82	1823.82	1833.82	1808.42	1794.22	1766.22	1766.02	1762.62	1809.22	1767.62	1787.22	1787.22
454.137	24320.4	1035.54	1861.3	1835.7	1805.7	1823.7	1783.7	1829.1	1778.9	1821.7	1805.3	1778.7	1782.9	1769.9	1733.9	1772.5	1774.3	1800.3	1800.3
454.405	23810.9	1037.3	1844.26	1778.46	1787.46	1773.06	1807.06	1741.66	1701.86	1766.86	1778.26	1758.66	1762.06	1743.06	1720.46	1745.06	1709.66	1736.06	1736.06
454.674	23436.6	1043.02	1810.13	1794.16	1788.86	1752.66	1731.66	1734.86	1757.66	1740.66	1728.86	1702.46	1739.06	1730.26	1737.46	1732.46	1709.46	1711.26	1711.26
454.942	23098.7	1035.38	1797.31	1766.58	1733.98	1762.98	1781.98	1726.38	1728.38	1757.18	1710.58	1718.18	1661.78	1710.18	1730.58	1720.58	1676.78	1704.18	1704.18
455.211	22795.9	1034.56	1794.17	1772.3	1781.5	1744.9	1718.3	1744.3	1705.1	1737.7	1702.5	1690.3	1700.1	1741.1	1715.9	1698.7	1693.3	1698.5	1698.5
455.479	21681.6	1046.44	1712.23	1675.3	1700.5	1664.7	1650.9	1654.3	1670.1	1659.5	1613.9	1612.1	1606.1	1623.9	1648.1	1632.7	1624.5	1608.3	1608.3
455.747	21813.5	1034.82	1715.99	1698.72	1735.32	1689.92	1682.72	1677.92	1642.52	1680.72	1666.72	1637.92	1647.92	1664.12	1612.32	1607.92	1631.32	1658.12	1658.12
456.016	21753.6	1032.22	1723.71	1724.64	1695.44	1699.64	1671.64	1668.44	1636.84	1688.64	1662.64	1668.24	1684.44	1677.04	1640.44	1656.84	1627.44	1636.84	1636.84
456.284	20947.2	1033.52	1691.05	1685.72	1662.12	1656.12	1616.12	1627.12	1639.52	1643.12	1650.32	1623.32	1622.52	1589.92	1600.92	1612.32	1566.72	1603.32	1603.32
